detector:	PD(3P-040)						
driver:							
temp:	24.990000						
station:	Se3						
mode:	CW						
operator:	XB0836						
spectralmetre:	HR4000						
calibra:	0.000000						
fixture num:	-						
duty cycle(%):							
frequency(Hz):							
comment:							
IMax:	15.000000						
							
							
							
							
							
I	P	U	EFF	EFF/10	EFF/100	temp	FLOW
0.00000	0.00000	0.00123	NaN	NaN	NaN	25.070000	0.000000
0.10000	0.00000	1.23086	0.00000	0.00000	0.00000	24.990000	0.000000
0.20000	0.00000	1.25548	0.00000	0.00000	0.00000	24.990000	0.000000
0.30000	0.00000	1.27108	0.00000	0.00000	0.00000	24.990000	0.000000
0.40000	0.00000	1.28246	0.00000	0.00000	0.00000	24.990000	0.000000
0.50000	0.00000	1.29338	0.00000	0.00000	0.00000	24.990000	0.000000
0.60000	0.00000	1.30135	0.00000	0.00000	0.00000	24.990000	0.000000
0.70000	0.00000	1.30901	0.00000	0.00000	0.00000	24.990000	0.000000
0.80000	0.00000	1.31638	0.00000	0.00000	0.00000	25.000000	0.000000
0.90000	0.00000	1.31911	0.00000	0.00000	0.00000	25.000000	0.000000
1.00000	0.01489	1.32125	0.01127	0.00113	0.00011	25.000000	0.000000
1.50000	0.59003	1.32887	0.29601	0.02960	0.00296	25.000000	0.000000
2.00000	1.15058	1.33627	0.43052	0.04305	0.00431	25.000000	0.000000
2.50000	1.70404	1.34329	0.50742	0.05074	0.00507	25.000000	0.000000
3.00000	2.25399	1.35041	0.55637	0.05564	0.00556	25.000000	0.000000
3.50000	2.80311	1.35717	0.59012	0.05901	0.00590	25.000000	0.000000
4.00000	3.34715	1.36473	0.61315	0.06132	0.00613	25.010000	0.000000
4.50000	3.88935	1.37110	0.63037	0.06304	0.00630	25.010000	0.000000
5.00000	4.42596	1.37758	0.64257	0.06426	0.00643	25.010000	0.000000
5.50000	4.96007	1.38444	0.65140	0.06514	0.00651	25.010000	0.000000
6.00000	5.48809	1.39067	0.65773	0.06577	0.00658	25.010000	0.000000
6.50000	6.01736	1.39735	0.66250	0.06625	0.00663	25.010000	0.000000
7.00000	6.53345	1.40393	0.66481	0.06648	0.00665	25.020000	0.000000
7.50000	7.04563	1.41059	0.66598	0.06660	0.00666	25.020000	0.000000
8.00000	7.56881	1.41644	0.66794	0.06679	0.00668	25.020000	0.000000
8.50000	8.07298	1.42265	0.66760	0.06676	0.00668	25.020000	0.000000
9.00000	8.57589	1.42871	0.66695	0.06669	0.00667	25.030000	0.000000
9.50000	9.06530	1.43511	0.66492	0.06649	0.00665	25.030000	0.000000
10.00000	9.54778	1.44117	0.66250	0.06625	0.00663	25.030000	0.000000
10.50000	10.03110	1.44712	0.66017	0.06602	0.00660	25.030000	0.000000
11.00000	10.48748	1.45354	0.65592	0.06559	0.00656	25.040000	0.000000
11.50000	10.96354	1.45963	0.65315	0.06531	0.00653	25.040000	0.000000
12.00000	11.41566	1.46525	0.64924	0.06492	0.00649	25.040000	0.000000
12.50000	11.87046	1.47094	0.64560	0.06456	0.00646	25.050000	0.000000
13.00000	12.30415	1.47667	0.64095	0.06409	0.00641	25.050000	0.000000
13.50000	12.75752	1.48260	0.63739	0.06374	0.00637	25.050000	0.000000
14.00000	13.16461	1.48861	0.63168	0.06317	0.00632	25.060000	0.000000
14.50000	13.57462	1.49373	0.62674	0.06267	0.00627	25.060000	0.000000
15.00000	13.99647	1.49946	0.62229	0.06223	0.00622	25.060000	0.000000
